# Data taken with Python For the Lab (MC version)
# Scan folder: Nir_run_1 
# First col: Freq in MHz
# Second col: Wavelength nm 
# Third col: Amplitude (intensity from Spectrometer units with 15uW int time) 
# Fourth col: Spectral width in nm 
68.00000 828.11598 874.00000 1.24987
68.25000 825.47774 897.33300 1.21486
68.50000 822.65683 993.33300 1.13919
68.75000 820.17098 1015.00000 1.19777
69.00000 817.53296 1056.66700 1.17543
69.25000 814.81412 1095.33300 1.21177
69.50000 812.28875 1058.00000 1.28569
69.75000 809.74694 1052.33300 1.19157
70.00000 807.07533 1107.66700 1.14358
70.25000 804.66776 1070.33300 1.17716
70.50000 802.10349 1123.66700 1.14416
70.75000 799.55421 1116.66700 1.24123
71.00000 797.05491 1190.66700 1.12750
71.25000 794.57441 1230.00000 1.15261
71.50000 792.04871 1238.66700 1.11439
71.75000 789.69137 1282.00000 1.06688
72.00000 787.25495 1332.66700 1.04503
72.25000 784.90333 1371.66700 1.04885
72.50000 782.49173 1306.66700 1.04120
72.75000 780.20096 1284.00000 1.06687
73.00000 777.73357 1274.00000 1.03548
73.25000 775.45937 1320.33300 0.99834
73.50000 773.14208 1379.66700 0.99204
73.75000 770.85835 1382.00000 1.03884
74.00000 768.57370 1395.66700 1.03348
74.25000 766.38718 1468.33300 1.03872
74.50000 764.11859 1522.00000 1.02266
74.75000 761.82595 1736.66700 0.97782
75.00000 759.71194 2022.33300 0.97254
75.25000 757.48897 2216.33300 1.00861
75.50000 755.34357 2451.00000 0.99386
75.75000 753.19958 2647.66700 1.00366
76.00000 751.03222 2801.00000 1.01072
76.25000 748.90934 3061.66700 0.99397
76.50000 746.79270 3283.66700 1.00572
76.75000 744.72384 3635.66700 0.98991
77.00000 742.62449 3884.66700 0.98451
77.25000 740.56924 4092.00000 0.98248
77.50000 738.49715 4278.00000 0.98776
77.75000 736.43421 4305.66700 0.97201
78.00000 734.40319 4666.66700 0.96483
78.25000 732.36864 4925.33300 0.93933
78.50000 730.38508 5111.66700 0.95417
78.75000 728.38339 5068.33300 0.97186
79.00000 726.41041 5200.33300 0.94511
79.25000 724.40037 5268.66700 0.94260
79.50000 722.46657 5187.66700 0.92436
79.75000 720.51836 5111.66700 0.92822
80.00000 718.59719 5076.00000 0.91592
80.25000 716.69088 4962.00000 0.90958
80.50000 714.78049 4791.00000 0.89957
80.75000 712.88228 4404.66700 0.92957
81.00000 710.97625 4344.33300 0.89449
81.25000 709.09965 4117.66700 0.90164
81.50000 707.22387 3995.00000 0.90566
81.75000 705.37532 3944.33300 0.87711
82.00000 703.54438 3292.00000 0.88769
82.25000 701.72294 3423.66700 0.87916
82.50000 699.90024 3396.00000 0.87632
82.75000 698.08958 3477.33300 0.88743
83.00000 696.29795 3598.66700 0.86140
83.25000 694.57220 3804.33300 0.86881
83.50000 692.81718 3998.00000 0.86565
83.75000 691.08765 4323.33300 0.86293
84.00000 689.36482 4748.00000 0.83925
84.25000 687.62783 5000.66700 0.84431
84.50000 685.93715 5328.66700 0.85381
84.75000 684.25870 5901.66700 0.83634
85.00000 682.58342 6077.66700 0.84003
85.25000 680.90245 6350.66700 0.84902
85.50000 679.20096 7453.00000 0.82941
85.75000 677.56738 8347.00000 0.82386
86.00000 675.91900 9224.33300 0.83156
86.25000 674.28157 9898.00000 0.83274
86.50000 672.65024 10888.66700 0.82703
86.75000 671.05556 11974.00000 0.82514
87.00000 669.45457 12683.33300 0.81574
87.25000 667.85614 13061.33300 0.82440
87.50000 666.25970 14684.66700 0.81360
87.75000 664.68596 16323.66700 0.80335
88.00000 663.13636 17542.33400 0.80674
88.25000 661.59031 18169.66600 0.80285
88.50000 660.04449 19244.66600 0.79586
88.75000 658.50339 19848.00000 0.80181
89.00000 657.01983 20241.33400 0.79117
89.25000 655.51342 20118.33400 0.78743
89.50000 654.01144 19869.00000 0.79031
89.75000 652.51242 20446.66600 0.77752
90.00000 651.07020 21750.00000 0.76667
90.25000 649.64296 21914.00000 0.75814
90.50000 648.22432 22106.66600 0.75506
90.75000 646.86050 21371.33400 0.76238
91.00000 645.60003 18997.00000 0.74699
91.25000 644.07278 16288.33300 0.80289
91.50000 642.88951 16735.66600 0.83899
91.75000 641.62231 14159.00000 0.91372
92.00000 640.37676 11719.33300 1.04192
92.25000 639.03593 9079.66700 1.30430
92.50000 637.42482 7299.66700 1.64677
92.75000 635.39166 7855.66700 1.46267
93.00000 633.62390 10457.00000 1.03135
93.25000 632.15131 12799.66700 0.87546
93.50000 630.73163 14505.00000 0.80517
93.75000 629.37218 14911.33300 0.78194
94.00000 627.99118 15433.66700 0.76333
94.25000 626.63221 15136.00000 0.74794
94.50000 625.25926 14663.00000 0.73861
94.75000 623.91320 14309.00000 0.73700
95.00000 622.60426 15156.33300 0.72873
95.25000 621.28129 15269.00000 0.72408
95.50000 619.96370 14972.33300 0.72790
95.75000 618.66281 14736.00000 0.72494
96.00000 617.36113 14667.66700 0.71869
96.25000 616.06547 14714.33300 0.71628
96.50000 614.77692 14897.33300 0.71477
96.75000 613.50270 15497.00000 0.71111
97.00000 612.23374 16237.66700 0.70770
97.25000 610.96060 17554.66600 0.70677
97.50000 609.71587 18722.33400 0.70524
97.75000 608.46811 21253.66600 0.69553
98.00000 607.23450 23212.33400 0.69776
98.25000 606.00154 24595.33400 0.69814
98.50000 604.77129 26290.33400 0.69638
98.75000 603.55705 28868.66600 0.69345
99.00000 602.33820 30629.66600 0.69035
99.25000 601.12578 31945.00000 0.68631
99.50000 599.92467 34076.33200 0.68262
99.75000 598.73490 35010.00000 0.68671
100.00000 597.54695 36388.00000 0.68385
100.25000 596.35490 38750.00000 0.68049
100.50000 595.17845 39757.33200 0.68270
100.75000 594.01911 41720.00000 0.67634
101.00000 592.85393 43148.33200 0.67840
101.25000 591.69864 42818.66800 0.67536
101.50000 590.54840 43863.66800 0.67811
101.75000 589.39671 43846.33200 0.67146
102.00000 588.24728 45592.00000 0.67186
102.25000 587.11215 45010.66800 0.66918
102.50000 585.97868 45436.66800 0.66746
102.75000 584.85560 46174.33200 0.66392
103.00000 583.75273 44970.00000 0.66497
103.25000 582.62800 45181.33200 0.66259
103.50000 581.51964 44898.66800 0.66119
103.75000 580.42586 44426.66800 0.65842
104.00000 579.32296 43920.33200 0.66003
104.25000 578.22916 42240.33200 0.65686
104.50000 577.15426 42287.00000 0.65463
104.75000 576.06748 41939.00000 0.65704
105.00000 575.00040 41365.66800 0.64996
105.25000 573.93044 39256.00000 0.64921
105.50000 572.86506 40087.66800 0.64754
105.75000 571.80761 39297.33200 0.64978
106.00000 570.75038 38365.00000 0.64527
106.25000 569.70691 38246.00000 0.64560
106.50000 568.66800 37037.00000 0.63765
106.75000 567.64323 37914.00000 0.64068
107.00000 566.60944 36217.00000 0.63994
107.25000 565.58170 37275.33200 0.64005
107.50000 564.57030 36610.00000 0.63163
107.75000 563.56590 35126.00000 0.63205
108.00000 562.54742 35279.00000 0.63515
108.25000 561.53691 35193.33200 0.63304
108.50000 560.53170 36205.00000 0.63034
108.75000 559.54458 37754.33200 0.62997
109.00000 558.56016 39567.00000 0.62246
109.25000 557.58565 40435.00000 0.61973
109.50000 556.63266 40018.66800 0.61470
109.75000 555.71882 35120.66800 0.61041
110.00000 554.63587 31488.66600 0.63428
110.25000 553.70772 37364.00000 0.61157
110.50000 552.77568 36604.33200 0.61286
110.75000 551.82626 35856.00000 0.61546
111.00000 550.87182 33669.33200 0.61048
111.25000 549.92344 34572.66800 0.60845
111.50000 548.97781 34450.00000 0.60286
111.75000 548.06463 34196.33200 0.60399
112.00000 547.16124 30344.33400 0.60621
112.25000 546.17807 28338.33400 0.61579
112.50000 545.24735 32591.00000 0.59542
112.75000 544.35164 35319.66800 0.59349
113.00000 543.46341 34184.66800 0.59415
113.25000 542.67284 24353.00000 0.61300
113.50000 541.55301 29322.66600 0.57325
113.75000 540.72434 34337.33200 0.59429
114.00000 539.84156 35707.00000 0.59070
114.25000 538.95095 33973.00000 0.59054
114.50000 538.06539 33981.00000 0.58947
114.75000 537.17987 34613.00000 0.59448
115.00000 536.30505 33196.33200 0.58914
115.25000 535.42706 33069.33200 0.58814
115.50000 534.55705 32848.33200 0.58926
115.75000 533.69453 31596.66600 0.58192
116.00000 532.83533 33718.00000 0.58380
116.25000 531.98172 33382.66800 0.58150
116.50000 531.13054 33666.33200 0.58098
116.75000 530.28399 33478.00000 0.57897
117.00000 529.44098 31609.66600 0.57439
117.25000 528.61014 31201.00000 0.57298
117.50000 527.77009 29517.00000 0.57095
117.75000 526.94886 30188.33400 0.57391
118.00000 526.11066 28193.00000 0.57094
118.25000 525.29098 29163.00000 0.57391
118.50000 524.46957 27001.33400 0.57192
118.75000 523.65190 27504.33400 0.57293
119.00000 522.83870 26806.66600 0.56915
119.25000 522.03363 25885.00000 0.57063
119.50000 521.21790 26063.00000 0.56572
119.75000 520.42428 26133.66600 0.56581
120.00000 519.62171 25178.66600 0.56687
120.25000 518.82650 25630.66600 0.56045
120.50000 518.04302 27509.00000 0.56244
120.75000 517.25586 26940.33400 0.56267
121.00000 516.48173 26270.66600 0.55982
121.25000 515.70165 26122.33400 0.56057
121.50000 514.92628 25089.00000 0.56012
121.75000 514.15562 24033.33400 0.55865
122.00000 513.39053 25645.33400 0.55825
122.25000 512.62752 24905.66600 0.55718
122.50000 511.86127 25065.33400 0.55243
122.75000 511.11139 25897.00000 0.55757
123.00000 510.35600 24870.33400 0.55176
123.25000 509.64214 23268.66600 0.54746
123.50000 508.83522 17067.33400 0.59632
123.75000 508.07635 25255.66600 0.54941
124.00000 507.36269 27306.66600 0.55580
124.25000 506.61837 27613.00000 0.55229
124.50000 505.89051 27973.00000 0.54826
124.75000 505.16145 29480.66600 0.54866
125.00000 504.43734 30021.33400 0.55263
125.25000 503.71539 30995.66600 0.55035
125.50000 502.98965 32527.00000 0.54665
125.75000 502.27589 31949.00000 0.54212
126.00000 501.56371 32633.00000 0.54320
126.25000 500.85721 34337.66800 0.54195
126.50000 500.16031 33869.66800 0.54121
126.75000 499.45038 33402.00000 0.54623
127.00000 498.74784 33431.33200 0.54709
127.25000 498.04935 33525.33200 0.54314
127.50000 497.36274 34467.00000 0.53769
127.75000 496.66696 34068.00000 0.53727
128.00000 495.98122 31891.66600 0.53801
128.25000 495.29431 31990.66600 0.53359
128.50000 494.61235 30697.66600 0.53423
128.75000 493.93327 29660.33400 0.53291
129.00000 493.24978 28585.33400 0.52913
129.25000 492.57785 28398.66600 0.52649
129.50000 491.90568 28220.00000 0.53258
129.75000 491.23094 26419.66600 0.53068
130.00000 490.57155 26748.33400 0.52681
130.25000 489.91248 26886.00000 0.52608
130.50000 489.25559 25739.00000 0.52314
130.75000 488.60385 25081.33400 0.52223
131.00000 487.94369 24232.66600 0.52104
131.25000 487.29527 23434.00000 0.51993
131.50000 486.64644 23094.66600 0.52242
131.75000 486.00253 21008.66600 0.52220
132.00000 485.35478 20801.66600 0.52423
132.25000 484.71948 20574.66600 0.51979
132.50000 484.08358 18828.33400 0.52676
132.75000 483.44441 18384.33400 0.52553
133.00000 482.80779 18302.00000 0.52726
133.25000 482.18112 17963.00000 0.52487
133.50000 481.56316 17204.00000 0.52489
133.75000 480.93215 16997.33400 0.51871
134.00000 480.31026 16370.66700 0.52110
134.25000 479.69490 15955.33300 0.52136
134.50000 479.07323 15925.66700 0.52317
134.75000 478.46103 15699.00000 0.52572
135.00000 477.85299 15121.00000 0.53089
135.25000 477.24521 14264.33300 0.52310
135.50000 476.62998 14144.00000 0.51772
135.75000 476.03163 13076.00000 0.51823
136.00000 475.42599 13199.66700 0.52376
136.25000 474.83442 11997.33300 0.52151
136.50000 474.24785 10509.66700 0.52177
136.75000 473.65043 9855.00000 0.51420
137.00000 473.05130 9072.00000 0.51980
137.25000 472.45802 8578.00000 0.52654
137.50000 471.87881 7829.00000 0.52074
137.75000 471.29316 7186.33300 0.51580
138.00000 470.70679 6353.66700 0.50987
138.25000 470.13851 6101.33300 0.51617
138.50000 469.56509 5225.66700 0.51997
138.75000 468.99616 4763.33300 0.50717
139.00000 468.41009 4025.33300 0.52452
139.25000 467.85442 3759.66700 0.53091
139.50000 467.29201 3269.66700 0.50811
139.75000 466.72900 3032.66700 0.50193
140.00000 466.16803 2585.00000 0.52459
140.25000 465.61217 2293.66700 0.52257
140.50000 465.05331 1927.33300 0.52839
140.75000 464.48353 1730.66700 0.50949
141.00000 463.97460 1545.00000 0.52091
141.25000 463.37583 1376.66700 0.51427
141.50000 462.84301 1219.66700 0.53526
141.75000 462.35275 1050.00000 0.52249
142.00000 461.79929 915.66700 0.52377
142.25000 461.31287 830.00000 0.54160
142.50000 460.66501 769.00000 0.46508
142.75000 460.12114 711.66700 -0.57953
143.00000 459.64884 674.66700 0.44942
143.25000 459.11597 640.00000 -0.56323
143.50000 458.53576 609.33300 0.49320
143.75000 458.04911 557.00000 0.56542
144.00000 457.66855 533.00000 0.41954
